VAMAS Surface Chemical Analysis Standard Data Transfer Format 1988 May 4
Not Specified
Kratos Axis
Not Specified
/C=/data/Axis/Victoria/mjr9_116a.dset
0
MAP
REGULAR
6
1
32768
32768
1
Etch Time
s
0
0
0
0
7
Wide/2
Not Specified
2005
9
14
10
41
24
0
4
   Lens Mode:Hybrid   Resolution:Pass energy 160   Iris(Aperture):slot(Slot)
   Anode:Mono(Al (Mono))(150 W)   Step(meV): 1000.0   Dwell(ms): 164        Sweeps: 3        Acquisition Time(s): 540     
   Acquired On :05/09/14 10:41:24   C/N :On
   
XPS
16384
16384
0
Mono(Al (Mono))
1486.69
150
1E+37
1E+37
6000
6000
1E+37
1E+37
FAT
160
1E+37
-4.455
0
1E+37
1E+37
1E+37
1E+37
Wide
None
-1
Kinetic Energy
eV
386.69
1
2
Intensity
d
Transmission
d
pulse counting
0.163636
3
0
1E+37
1E+37
1E+37
0
2202
47
30809
27.0476
36.9298
8085
27.6983
8163
27.7037
8164
27.709
8097
27.7144
8081
27.7197
7811
27.7251
7941
27.7304
7916
27.7357
7864
27.7411
8024
27.7464
7982
27.7518
8099
27.7571
8044
27.7624
7930
27.7678
8034
27.7731
8058
27.7785
8081
27.7838
8205
27.7892
8143
27.7945
8195
27.7998
8144
27.8052
8254
27.8105
8426
27.8159
8335
27.8212
8382
27.8266
8263
27.8319
8354
27.8372
8257
27.8426
8231
27.8479
8215
27.8533
8311
27.8586
8385
27.864
8296
27.8693
8380
27.8746
8381
27.88
8376
27.8853
8378
27.8907
8345
27.896
8224
27.9014
8467
27.9067
8455
27.912
8623
27.9174
8399
27.9227
8475
27.9281
8466
27.9334
8469
27.9387
8668
27.9441
8517
27.9494
8656
27.9548
8578
27.9601
8679
27.9655
8645
27.9708
8583
27.9761
8641
27.9815
8674
27.9868
8633
27.9922
8530
27.9975
8565
28.0029
8739
28.0082
8854
28.0135
8811
28.0189
8711
28.0242
8671
28.0296
8839
28.0349
8706
28.0403
8755
28.0456
8615
28.0509
8711
28.0563
8723
28.0616
8732
28.067
8722
28.0809
8732
28.0992
8762
28.1175
8906
28.1358
8861
28.1541
8864
28.1724
8842
28.1908
9005
28.2091
8998
28.2274
8996
28.2457
8986
28.264
8895
28.2823
8938
28.3006
9009
28.3189
8988
28.3373
8993
28.3556
8985
28.3739
9075
28.3922
8893
28.4105
8869
28.4288
8757
28.4471
8833
28.4654
8771
28.4838
8926
28.5021
8886
28.5204
8793
28.5387
9024
28.557
9078
28.5753
8890
28.5936
9001
28.6119
9279
28.6303
9240
28.6486
9134
28.6669
9142
28.6852
9155
28.7035
9165
28.7218
9122
28.7401
8933
28.7584
8837
28.7768
8847
28.7951
8681
28.8134
8563
28.8317
8488
28.85
8398
28.8683
8373
28.8866
8194
28.905
8183
28.9233
8228
28.9416
8241
28.9599
8246
28.9782
8373
28.9965
8491
29.0148
8857
29.0331
9127
29.0515
9165
29.0698
9188
29.0881
9220
29.1064
9031
29.1247
8974
29.143
8644
29.1613
8475
29.1796
8450
29.198
8112
29.2163
7763
29.2346
7582
29.2529
7352
29.2712
7210
29.2895
7025
29.3078
6921
29.3261
6855
29.3445
6871
29.3628
6819
29.3811
6946
29.3994
6817
29.4177
6791
29.436
6836
29.4543
6808
29.4726
6826
29.491
6815
29.5093
6738
29.5276
6903
29.5459
6822
29.5642
6933
29.5825
6865
29.6008
7014
29.6192
6886
29.6375
6948
29.6558
6941
29.6741
6987
29.6924
6831
29.7107
6920
29.729
6992
29.7473
7085
29.7657
7056
29.784
6992
29.8023
7086
29.8206
7060
29.8389
6984
29.8572
7068
29.8755
7061
29.8938
7028
29.9122
6912
29.9305
6897
29.9488
7069
29.9671
7078
29.9854
7114
30.0037
7173
30.022
7199
30.0403
7062
30.0587
7030
30.077
7067
30.0953
7186
30.1136
7062
30.1319
7080
30.1502
7149
30.1685
7070
30.1869
7155
30.2052
7176
30.2235
7109
30.2418
7294
30.2601
7117
30.2784
7305
30.2967
7128
30.315
7156
30.3334
7194
30.3517
7296
30.37
7204
30.3883
7333
30.4066
7167
30.4249
7197
30.4432
7357
30.4615
7363
30.4799
7253
30.4982
7265
30.5165
7285
30.5348
7269
30.5531
7339
30.5714
7153
30.5897
7276
30.608
7313
30.6264
7308
30.6447
7249
30.663
7355
30.6813
7341
30.6996
7355
30.7179
7365
30.7362
7317
30.7545
7418
30.7729
7441
30.7912
7298
30.8095
7260
30.8278
7317
30.8461
7397
30.8644
7438
30.8827
7317
30.9011
7410
30.9194
7463
30.9377
7431
30.956
7542
30.9743
7373
30.9926
7480
31.0109
7568
31.0292
7589
31.0476
7673
31.0659
7583
31.0842
7663
31.1025
7604
31.1208
7562
31.1391
7437
31.1574
7488
31.1757
7546
31.1941
7558
31.2124
7564
31.2307
7675
31.249
7803
31.2673
7569
31.2856
7431
31.3039
7477
31.3222
7536
31.3406
7590
31.3589
7592
31.3772
7654
31.3955
7641
31.4138
7642
31.4321
7555
31.4504
7668
31.4688
7695
31.4871
7672
31.5054
7867
31.5237
7798
31.542
7757
31.5603
7835
31.5786
7786
31.5969
7719
31.6153
7673
31.6336
7590
31.6519
7647
31.6702
7674
31.6885
7651
31.7068
7737
31.7251
7945
31.7434
7774
31.7618
7870
31.7801
7777
31.7984
7768
31.8167
7759
31.835
7765
31.8533
7908
31.8716
7799
31.8899
7878
31.9082
7830
31.9264
7895
31.9447
7900
31.9629
7974
31.9811
7958
31.9994
7973
32.0176
7857
32.0358
7891
32.054
8000
32.0723
7860
32.0905
7998
32.1087
8001
32.127
8014
32.1452
7930
32.1634
7940
32.1817
8058
32.1999
8107
32.2181
8144
32.2364
8095
32.2546
7947
32.2728
8003
32.291
8009
32.3093
7880
32.3275
8025
32.3457
8010
32.364
8022
32.3822
7959
32.4004
8031
32.4187
8039
32.4369
8135
32.4551
8119
32.4734
8181
32.4916
8123
32.5098
8103
32.528
8200
32.5463
8146
32.5645
8136
32.5827
8253
32.601
8070
32.6192
8101
32.6374
8255
32.6557
8240
32.6739
8157
32.6921
8164
32.7104
8049
32.7286
8267
32.7468
8295
32.7651
8237
32.7833
8203
32.8015
8286
32.8197
8262
32.838
8458
32.8562
8278
32.8744
8282
32.8927
8323
32.9109
8281
32.9291
8296
32.9474
8360
32.9656
8344
32.9838
8395
33.0021
8338
33.0203
8324
33.0385
8412
33.0568
8329
33.075
8286
33.0932
8359
33.1114
8391
33.1297
8543
33.1479
8497
33.1661
8503
33.1844
8456
33.2026
8452
33.2208
8508
33.2391
8451
33.2573
8403
33.2755
8408
33.2938
8464
33.312
8574
33.3302
8547
33.3484
8532
33.3667
8497
33.3849
8584
33.4031
8579
33.4214
8543
33.4396
8684
33.4578
8590
33.4761
8639
33.4943
8505
33.5125
8506
33.5308
8748
33.549
8692
33.5672
8663
33.5854
8786
33.6037
8666
33.6219
8706
33.6401
8652
33.6584
8833
33.6766
8702
33.6948
8708
33.7131
8675
33.7313
8769
33.7495
8742
33.7678
8753
33.786
8744
33.8042
8617
33.8225
8661
33.8407
8840
33.8589
8856
33.8771
8779
33.8954
8670
33.9136
8694
33.9318
8760
33.9501
8842
33.9683
8819
33.9865
8732
34.0048
8599
34.023
8729
34.0412
8846
34.0595
8865
34.0777
8854
34.0959
8823
34.1141
8912
34.1324
8755
34.1506
8765
34.1688
8706
34.1871
8782
34.2053
8769
34.2235
8939
34.2418
8851
34.26
8740
34.2782
8792
34.2965
8905
34.3147
8942
34.3329
8871
34.3512
8959
34.3694
8888
34.3876
8868
34.4058
8901
34.4241
8879
34.4423
8924
34.4605
8918
34.4788
8947
34.497
9041
34.5152
9079
34.5335
9070
34.5517
9063
34.5699
9181
34.5882
9085
34.6064
8998
34.6246
9127
34.6428
9090
34.6611
9103
34.6793
8951
34.6975
9079
34.7158
9162
34.734
9176
34.7522
9276
34.7705
9011
34.7887
9224
34.8069
9117
34.8252
9232
34.8434
9246
34.8616
9178
34.8798
9170
34.8981
9296
34.9163
9244
34.9345
9137
34.9528
9304
34.971
9274
34.9892
9373
35.0075
9403
35.0257
9295
35.0439
9356
35.0622
9212
35.0804
9244
35.0986
9390
35.1169
9428
35.1351
9341
35.1533
9404
35.1715
9492
35.1898
9409
35.208
9356
35.2262
9384
35.2445
9481
35.2627
9340
35.2809
9297
35.2992
9320
35.3174
9359
35.3356
9422
35.3539
9455
35.3721
9436
35.3903
9411
35.4085
9462
35.4268
9418
35.445
9399
35.4632
9543
35.4815
9594
35.4997
9685
35.5179
9389
35.5362
9442
35.5544
9415
35.5726
9371
35.5909
9535
35.6091
9572
35.6273
9459
35.6455
9577
35.6638
9516
35.682
9519
35.7002
9461
35.7185
9631
35.7367
9776
35.7549
9708
35.7732
9555
35.7914
9483
35.8096
9580
35.8279
9626
35.8461
9537
35.8643
9640
35.8826
9498
35.9008
9545
35.919
9575
35.9372
9675
35.9449
9753
35.9516
9575
35.9583
9698
35.965
9632
35.9717
9707
35.9784
9631
35.9851
9615
35.9918
9849
35.9985
9657
36.0052
9730
36.0119
9501
36.0186
9638
36.0253
9636
36.032
9674
36.0387
9764
36.0454
9758
36.0521
9678
36.0588
9593
36.0655
9695
36.0722
9665
36.0789
9779
36.0856
9877
36.0923
9716
36.099
9524
36.1057
9599
36.1124
9725
36.1191
9739
36.1258
9640
36.1325
9744
36.1392
9472
36.1459
9360
36.1526
9390
36.1593
9304
36.166
9353
36.1727
9351
36.1794
9328
36.1861
9483
36.1928
9398
36.1995
9625
36.2062
9533
36.2129
9685
36.2196
9874
36.2263
9951
36.233
9917
36.2397
10219
36.2464
10068
36.2531
10110
36.2598
10125
36.2665
9900
36.2732
9853
36.2799
9441
36.2866
9378
36.2933
9200
36.3
9008
36.3067
8726
36.3134
8441
36.3201
8077
36.3268
7748
36.3335
7403
36.3402
7374
36.3469
7158
36.3536
7060
36.3603
7102
36.367
7152
36.3737
7097
36.3804
7920
36.3871
10675
36.3938
16108
36.4005
22068
36.4072
21318
36.4139
13575
36.4206
7983
36.4273
6463
36.434
6207
36.4407
6132
36.4474
6074
36.4541
6041
36.4608
6036
36.4675
6006
36.4742
5839
36.4809
5956
36.4876
5946
36.4943
6048
36.501
6097
36.5077
6034
36.5144
5961
36.5211
5980
36.5278
6006
36.5345
6040
36.5412
6089
36.5479
5992
36.5546
5966
36.5613
5879
36.568
6052
36.5747
5989
36.5814
6016
36.5881
5969
36.5948
5990
36.6015
6035
36.6082
6026
36.6149
6063
36.6216
6064
36.6283
6036
36.635
5953
36.6417
6178
36.6484
6165
36.6551
6069
36.6618
6017
36.6685
6098
36.6752
6008
36.6819
6058
36.6886
6109
36.6953
6054
36.702
6084
36.7087
6114
36.7154
6109
36.7221
6188
36.7288
6101
36.7355
6194
36.7422
6042
36.7489
6203
36.7556
6253
36.7623
6111
36.769
6173
36.7757
6152
36.7824
6111
36.7891
6137
36.7958
6261
36.8025
6223
36.8092
6114
36.8159
6235
36.8226
6153
36.8293
6265
36.836
6176
36.8427
6224
36.8494
6183
36.8561
6093
36.8628
6195
36.8695
6220
36.8762
6153
36.8829
5997
36.8896
6239
36.8963
6243
36.903
6266
36.9097
6365
36.9164
6356
36.9231
6302
36.9298
6216
36.9117
6109
36.8827
6191
36.8537
6172
36.8248
6237
36.7958
6373
36.7668
6242
36.7378
6128
36.7088
6152
36.6798
6212
36.6508
6297
36.6218
6326
36.5929
6184
36.5639
6242
36.5349
6450
36.5059
6201
36.4769
6211
36.4479
6195
36.4189
6158
36.3899
6163
36.3609
6166
36.332
6231
36.303
6224
36.274
6271
36.245
6306
36.216
6425
36.187
6451
36.158
6405
36.129
6409
36.1001
6340
36.0711
6295
36.0421
6440
36.0131
6253
35.9841
6337
35.9551
6120
35.9261
6021
35.8971
5934
35.8681
6015
35.8392
5886
35.8102
5955
35.7812
5892
35.7522
5756
35.7232
5702
35.6942
5634
35.6652
5572
35.6362
5440
35.6073
5409
35.5783
5298
35.5493
5228
35.5203
5379
35.4913
5794
35.4623
6543
35.4333
8364
35.4043
10947
35.3754
10342
35.3464
7201
35.3174
5641
35.2884
5233
35.2594
5166
35.2304
5101
35.2014
5144
35.1724
5116
35.1434
5193
35.1145
5074
35.0855
5131
35.0565
5098
35.0275
5194
34.9985
5165
34.9695
5152
34.9405
5164
34.9115
5198
34.8826
5141
34.8536
5309
34.8246
5204
34.7956
5094
34.7666
5167
34.7376
5162
34.7086
5246
34.6796
5410
34.6506
5359
34.6217
5277
34.5927
5336
34.5637
5266
34.5347
5289
34.5057
5360
34.4767
5404
34.4477
5518
34.4187
5358
34.3898
5321
34.3608
5313
34.3318
5441
34.3028
5441
34.2738
5423
34.2448
5434
34.2158
5399
34.1868
5541
34.1578
5411
34.1289
5461
34.0999
5539
34.0709
5563
34.0419
5471
34.0129
5471
33.9839
5553
33.9549
5749
33.9259
5726
33.897
5711
33.868
5664
33.839
5605
33.81
5628
33.781
5701
33.752
5719
33.723
5613
33.694
5575
33.6651
5686
33.6361
5755
33.6071
5698
33.5781
5703
33.5491
5722
33.5201
5875
33.4911
5795
33.4621
5849
33.4331
5991
33.4042
5923
33.3752
5855
33.3462
5839
33.3172
5842
33.2882
5878
33.2592
5808
33.2302
5906
33.2012
5933
33.1723
5883
33.1433
5844
33.1143
6038
33.0853
6076
33.0563
6068
33.0273
6045
32.9983
6108
32.9693
6302
32.9403
6207
32.9114
6293
32.8824
6517
32.8534
6414
32.8244
6477
32.7954
6571
32.7664
6573
32.7374
6513
32.7084
6637
32.6795
6550
32.6505
6491
32.6215
6321
32.5925
5915
32.5635
5658
32.5345
5277
32.5055
4851
32.4765
4451
32.4475
4171
32.4186
3870
32.3896
3436
32.3606
2987
32.3316
2705
32.3026
2538
32.2736
2511
32.2446
2619
32.2156
3259
32.1867
5419
32.1577
8783
32.1287
13173
32.0997
21311
32.0707
30809
32.0417
25841
32.0127
10311
31.9837
2700
31.9547
1585
31.9258
1299
31.8968
1212
31.8678
1180
31.8388
1087
31.8098
1010
31.7808
988
31.7518
977
31.7228
1040
31.6939
1123
31.6649
1220
31.6359
1092
31.6069
1095
31.5779
1053
31.5489
1016
31.5199
980
31.4909
967
31.462
976
31.433
955
31.404
951
31.375
928
31.346
883
31.317
900
31.288
869
31.259
875
31.23
937
31.2011
979
31.1721
977
31.1431
918
31.1141
955
31.1243
918
31.1476
925
31.1709
921
31.1942
882
31.2174
898
31.2407
872
31.264
801
31.2873
874
31.3106
877
31.3339
775
31.3571
844
31.3804
851
31.4037
826
31.427
850
31.4503
845
31.4736
869
31.4968
842
31.5201
945
31.5434
1081
31.5667
1233
31.59
1184
31.6133
1010
31.6365
923
31.6598
873
31.6831
898
31.7064
846
31.7297
797
31.753
809
31.7762
796
31.7995
830
31.8228
826
31.8461
832
31.8694
779
31.8927
809
31.9159
781
31.9392
762
31.9625
722
31.9858
743
32.0091
762
32.0324
762
32.0556
713
32.0789
703
32.1022
682
32.1255
674
32.1488
696
32.1721
687
32.1953
724
32.2186
706
32.2419
759
32.2652
947
32.2885
1040
32.3118
1056
32.335
985
32.3583
929
32.3816
826
32.4049
774
32.4282
673
32.4515
682
32.4747
653
32.498
647
32.5213
681
32.5446
705
32.5679
717
32.5912
657
32.6144
642
32.6377
639
32.661
661
32.6843
652
32.7076
679
32.7309
635
32.7541
585
32.7774
573
32.8007
568
32.824
577
32.8473
585
32.8706
560
32.8938
565
32.9171
538
32.9404
527
32.9637
551
32.987
594
33.0103
734
33.0336
1054
33.0568
1340
33.0801
1127
33.1034
782
33.1267
635
33.15
574
33.1732
607
33.1965
549
33.2198
527
33.2431
520
33.2664
544
33.2729
529
33.2261
527
33.1793
534
33.1325
586
33.0857
659
33.0389
691
32.9921
690
32.9454
620
32.8986
550
32.8518
512
32.805
503
32.7582
496
32.7114
510
32.6646
533
32.6179
563
32.5711
480
32.5243
517
32.4775
510
32.4307
523
32.3839
525
32.3371
517
32.2904
500
32.2436
513
32.1968
529
32.15
525
32.1032
539
32.0564
509
32.0096
471
31.9629
519
31.9161
528
31.8693
494
31.8225
516
31.7757
498
31.7289
537
31.6821
558
31.6354
519
31.5886
536
31.5418
538
31.495
551
31.4482
521
31.4014
496
31.3546
514
31.3079
502
31.2611
524
31.2143
540
31.1675
518
31.1207
556
31.0739
490
31.0272
501
30.9804
492
30.9336
537
30.8868
546
30.84
512
30.7932
525
30.7464
525
30.6997
633
30.6529
755
30.6061
732
30.5593
578
30.5125
553
30.4657
490
30.4189
513
30.3722
531
30.3254
507
30.2786
501
30.2318
490
30.185
515
30.1382
515
30.0914
499
30.0447
501
29.9979
502
29.9511
500
29.9043
445
29.8575
507
29.8107
512
29.7639
511
29.7172
513
29.6704
494
29.6236
476
29.5768
473
29.53
502
29.4832
517
29.4364
485
29.3897
471
29.3429
500
29.2961
468
29.2493
510
29.2025
461
29.1557
496
29.1089
505
29.0622
497
29.0154
456
28.9686
469
28.9218
479
28.875
452
28.8282
453
28.7815
479
28.7347
479
28.6879
489
28.6411
520
28.5943
507
28.5475
493
28.5007
472
28.454
484
28.4072
505
28.3604
502
28.3136
497
28.2668
465
28.22
493
28.1732
533
28.1265
538
28.0797
485
28.0329
482
27.9861
497
27.9393
503
27.8925
442
27.8457
423
27.799
467
27.7522
479
27.7054
457
27.6586
425
27.6118
398
27.565
395
27.5182
401
27.4715
419
27.4247
380
27.3779
373
27.3311
400
27.2843
436
27.2375
489
27.1907
528
27.144
658
27.0972
662
27.0504
691
27.0476
644
27.0476
571
27.0476
469
27.0476
425
27.0476
387
27.0476
433
27.0476
510
27.0476
476
27.0476
434
27.0476
435
27.0476
411
27.0476
423
27.0476
328
27.0476
281
27.0476
295
27.0476
293
27.0476
250
27.0476
224
27.0476
185
27.0476
186
27.0476
155
27.0476
115
27.0476
47
27.0476
Wide/5
Not Specified
2005
9
14
11
47
20
0
4
   Lens Mode:Hybrid   Resolution:Pass energy 160   Iris(Aperture):slot(Slot)
   Anode:Mono(Al (Mono))(150 W)   Step(meV): 1000.0   Dwell(ms): 300        Sweeps: 5        Acquisition Time(s): 902     
   Acquired On :05/09/14 11:47:20   C/N :On
   
XPS
16384
16384
0
Mono(Al (Mono))
1486.69
150
1E+37
1E+37
6000
6000
1E+37
1E+37
FAT
160
1E+37
-4.455
0
1E+37
1E+37
1E+37
1E+37
Wide
None
-1
Kinetic Energy
eV
886.69
1
2
Intensity
d
Transmission
d
pulse counting
0.3
5
0
1E+37
1E+37
1E+37
0
1202
148
91985
27.0476
36.9298
29857
35.9372
30022
35.9449
29792
35.9516
29964
35.9583
29975
35.965
29895
35.9717
29985
35.9784
30174
35.9851
30231
35.9918
30005
35.9985
29917
36.0052
29847
36.0119
29762
36.0186
29831
36.0253
29861
36.032
29843
36.0387
29845
36.0454
30108
36.0521
30129
36.0588
30310
36.0655
30093
36.0722
30094
36.0789
30108
36.0856
30360
36.0923
30435
36.099
30212
36.1057
30208
36.1124
30130
36.1191
30104
36.1258
30058
36.1325
29925
36.1392
29821
36.1459
29514
36.1526
29684
36.1593
29645
36.166
29303
36.1727
29013
36.1794
29051
36.1861
29096
36.1928
29398
36.1995
29355
36.2062
29600
36.2129
30118
36.2196
30665
36.2263
31023
36.233
31088
36.2397
31177
36.2464
31473
36.2531
31364
36.2598
30777
36.2665
30771
36.2732
30160
36.2799
29290
36.2866
28787
36.2933
28411
36.3
27710
36.3067
26833
36.3134
25807
36.3201
24792
36.3268
23610
36.3335
23102
36.3402
22602
36.3469
22356
36.3536
22326
36.3603
22055
36.367
21969
36.3737
22666
36.3804
26020
36.3871
35647
36.3938
53158
36.4005
68784
36.4072
63209
36.4139
39906
36.4206
24308
36.4273
20210
36.434
19404
36.4407
19122
36.4474
19025
36.4541
18846
36.4608
18671
36.4675
18693
36.4742
18555
36.4809
18490
36.4876
18611
36.4943
18669
36.501
18639
36.5077
18549
36.5144
18440
36.5211
18511
36.5278
18553
36.5345
18659
36.5412
18713
36.5479
18594
36.5546
18722
36.5613
18791
36.568
18536
36.5747
18801
36.5814
18816
36.5881
18907
36.5948
18898
36.6015
19054
36.6082
18808
36.6149
18936
36.6216
18784
36.6283
18710
36.635
18968
36.6417
19236
36.6484
19123
36.6551
19004
36.6618
18997
36.6685
18903
36.6752
18977
36.6819
19117
36.6886
18991
36.6953
19067
36.702
18921
36.7087
19261
36.7154
19303
36.7221
18961
36.7288
19161
36.7355
18909
36.7422
19022
36.7489
19083
36.7556
19191
36.7623
19277
36.769
19203
36.7757
19361
36.7824
19238
36.7891
19317
36.7958
19447
36.8025
19263
36.8092
19459
36.8159
19188
36.8226
19194
36.8293
19271
36.836
19508
36.8427
19471
36.8494
19449
36.8561
19283
36.8628
19307
36.8695
19387
36.8762
19401
36.8829
19379
36.8896
19577
36.8963
19451
36.903
19377
36.9097
19425
36.9164
19548
36.9231
19509
36.9298
19456
