VAMAS Surface Chemical Analysis Standard Data Transfer Format 1988 May 4
Not Specified
Kratos Axis
Not Specified
/C=/data/Axis/Victoria/mjr9_64c.dset
0
MAP
REGULAR
6
1
32768
32768
1
Etch Time
s
0
0
0
0
9
Wide/2
Not Specified
2005
9
14
10
52
30
0
4
   Lens Mode:Hybrid   Resolution:Pass energy 160   Iris(Aperture):slot(Slot)
   Anode:Mono(Al (Mono))(150 W)   Step(meV): 1000.0   Dwell(ms): 164        Sweeps: 3        Acquisition Time(s): 540     
   Acquired On :05/09/14 10:52:30   C/N :On
   
XPS
16384
16384
0
Mono(Al (Mono))
1486.69
150
1E+37
1E+37
6000
6000
1E+37
1E+37
FAT
160
1E+37
-4.455
0
1E+37
1E+37
1E+37
1E+37
Wide
None
-1
Kinetic Energy
eV
386.69
1
2
Intensity
d
Transmission
d
pulse counting
0.163636
3
0
1E+37
1E+37
1E+37
0
2202
48
4532
27.0476
36.9298
4136
27.6983
4161
27.7037
4145
27.709
4210
27.7144
4142
27.7197
4079
27.7251
4088
27.7304
4129
27.7357
4198
27.7411
4335
27.7464
4201
27.7518
4215
27.7571
4267
27.7624
4368
27.7678
4253
27.7731
4245
27.7785
4290
27.7838
4244
27.7892
4219
27.7945
4080
27.7998
4150
27.8052
4220
27.8105
4249
27.8159
4259
27.8212
4230
27.8266
4239
27.8319
4277
27.8372
4278
27.8426
4154
27.8479
4146
27.8533
4205
27.8586
4189
27.864
4196
27.8693
4225
27.8746
4268
27.88
4198
27.8853
4271
27.8907
4317
27.896
4262
27.9014
4220
27.9067
4254
27.912
4270
27.9174
4207
27.9227
4220
27.9281
4316
27.9334
4227
27.9387
4260
27.9441
4278
27.9494
4298
27.9548
4381
27.9601
4394
27.9655
4369
27.9708
4369
27.9761
4419
27.9815
4365
27.9868
4354
27.9922
4393
27.9975
4378
28.0029
4359
28.0082
4254
28.0135
4253
28.0189
4389
28.0242
4337
28.0296
4288
28.0349
4308
28.0403
4407
28.0456
4424
28.0509
4325
28.0563
4328
28.0616
4309
28.067
4394
28.0809
4365
28.0992
4303
28.1175
4320
28.1358
4311
28.1541
4380
28.1724
4328
28.1908
4328
28.2091
4397
28.2274
4277
28.2457
4256
28.264
4532
28.2823
4405
28.3006
4329
28.3189
4398
28.3373
4330
28.3556
4301
28.3739
4264
28.3922
4356
28.4105
4363
28.4288
4377
28.4471
4387
28.4654
4340
28.4838
4296
28.5021
4431
28.5204
4423
28.5387
4446
28.557
4438
28.5753
4329
28.5936
4372
28.6119
4376
28.6303
4490
28.6486
4498
28.6669
4371
28.6852
4360
28.7035
4396
28.7218
4423
28.7401
4370
28.7584
4375
28.7768
4414
28.7951
4295
28.8134
4258
28.8317
4249
28.85
4223
28.8683
4315
28.8866
4176
28.905
4272
28.9233
4261
28.9416
4308
28.9599
4337
28.9782
4284
28.9965
4241
29.0148
4384
29.0331
4432
29.0515
4365
29.0698
4438
29.0881
4423
29.1064
4485
29.1247
4400
29.143
4204
29.1613
4243
29.1796
4179
29.198
4065
29.2163
4073
29.2346
4016
29.2529
3888
29.2712
3999
29.2895
4134
29.3078
3875
29.3261
3954
29.3445
3957
29.3628
3884
29.3811
3788
29.3994
3882
29.4177
3875
29.436
3885
29.4543
3936
29.4726
3914
29.491
3880
29.5093
3899
29.5276
3953
29.5459
3889
29.5642
3878
29.5825
3890
29.6008
3840
29.6192
3901
29.6375
3911
29.6558
3845
29.6741
3843
29.6924
3832
29.7107
3844
29.729
3895
29.7473
3889
29.7657
3920
29.784
3872
29.8023
3789
29.8206
3832
29.8389
3816
29.8572
3844
29.8755
3823
29.8938
3791
29.9122
3789
29.9305
3802
29.9488
3731
29.9671
3829
29.9854
3842
30.0037
3899
30.022
3912
30.0403
3858
30.0587
3911
30.077
3857
30.0953
3751
30.1136
3748
30.1319
3748
30.1502
3833
30.1685
3779
30.1869
3734
30.2052
3722
30.2235
3684
30.2418
3758
30.2601
3792
30.2784
3694
30.2967
3771
30.315
3753
30.3334
3673
30.3517
3742
30.37
3681
30.3883
3710
30.4066
3626
30.4249
3754
30.4432
3654
30.4615
3640
30.4799
3589
30.4982
3713
30.5165
3642
30.5348
3645
30.5531
3668
30.5714
3575
30.5897
3553
30.608
3588
30.6264
3545
30.6447
3495
30.663
3554
30.6813
3631
30.6996
3531
30.7179
3465
30.7362
3473
30.7545
3449
30.7729
3514
30.7912
3433
30.8095
3394
30.8278
3365
30.8461
3356
30.8644
3300
30.8827
3392
30.9011
3398
30.9194
3472
30.9377
3457
30.956
3368
30.9743
3427
30.9926
3329
31.0109
3226
31.0292
3274
31.0476
3273
31.0659
3332
31.0842
3322
31.1025
3304
31.1208
3284
31.1391
3269
31.1574
3277
31.1757
3300
31.1941
3365
31.2124
3242
31.2307
3290
31.249
3254
31.2673
3281
31.2856
3188
31.3039
3240
31.3222
3173
31.3406
3222
31.3589
3206
31.3772
3203
31.3955
3157
31.4138
3027
31.4321
3070
31.4504
3191
31.4688
3142
31.4871
3109
31.5054
3112
31.5237
3053
31.542
3072
31.5603
3060
31.5786
3081
31.5969
3030
31.6153
3023
31.6336
2955
31.6519
3008
31.6702
2934
31.6885
2940
31.7068
2863
31.7251
2889
31.7434
2918
31.7618
2863
31.7801
2824
31.7984
2845
31.8167
2764
31.835
2788
31.8533
2713
31.8716
2761
31.8899
2875
31.9082
2754
31.9264
2716
31.9447
2815
31.9629
2778
31.9811
2773
31.9994
2798
32.0176
2825
32.0358
2782
32.054
2681
32.0723
2725
32.0905
2744
32.1087
2780
32.127
2800
32.1452
2772
32.1634
2753
32.1817
2759
32.1999
2727
32.2181
2706
32.2364
2750
32.2546
2671
32.2728
2752
32.291
2714
32.3093
2747
32.3275
2748
32.3457
2777
32.364
2776
32.3822
2713
32.4004
2697
32.4187
2648
32.4369
2658
32.4551
2805
32.4734
2758
32.4916
2688
32.5098
2701
32.528
2826
32.5463
2772
32.5645
2793
32.5827
2792
32.601
2765
32.6192
2726
32.6374
2686
32.6557
2663
32.6739
2490
32.6921
2612
32.7104
2602
32.7286
2649
32.7468
2570
32.7651
2582
32.7833
2563
32.8015
2565
32.8197
2603
32.838
2556
32.8562
2616
32.8744
2528
32.8927
2439
32.9109
2492
32.9291
2454
32.9474
2537
32.9656
2519
32.9838
2496
33.0021
2423
33.0203
2463
33.0385
2522
33.0568
2506
33.075
2405
33.0932
2472
33.1114
2492
33.1297
2407
33.1479
2429
33.1661
2421
33.1844
2447
33.2026
2475
33.2208
2448
33.2391
2379
33.2573
2433
33.2755
2422
33.2938
2447
33.312
2413
33.3302
2371
33.3484
2430
33.3667
2365
33.3849
2384
33.4031
2327
33.4214
2339
33.4396
2327
33.4578
2280
33.4761
2364
33.4943
2282
33.5125
2291
33.5308
2249
33.549
2362
33.5672
2221
33.5854
2290
33.6037
2319
33.6219
2252
33.6401
2264
33.6584
2351
33.6766
2280
33.6948
2210
33.7131
2110
33.7313
2107
33.7495
2084
33.7678
2085
33.786
2013
33.8042
1996
33.8225
1960
33.8407
2071
33.8589
2159
33.8771
2174
33.8954
2262
33.9136
2245
33.9318
2120
33.9501
1846
33.9683
1715
33.9865
1638
34.0048
1465
34.023
1498
34.0412
1433
34.0595
1486
34.0777
1430
34.0959
1489
34.1141
1461
34.1324
1458
34.1506
1524
34.1688
1548
34.1871
1485
34.2053
1410
34.2235
1440
34.2418
1488
34.26
1455
34.2782
1427
34.2965
1384
34.3147
1477
34.3329
1491
34.3512
1409
34.3694
1393
34.3876
1472
34.4058
1433
34.4241
1439
34.4423
1540
34.4605
1445
34.4788
1487
34.497
1471
34.5152
1430
34.5335
1437
34.5517
1430
34.5699
1429
34.5882
1441
34.6064
1424
34.6246
1469
34.6428
1448
34.6611
1496
34.6793
1529
34.6975
1510
34.7158
1434
34.734
1465
34.7522
1496
34.7705
1510
34.7887
1486
34.8069
1468
34.8252
1458
34.8434
1490
34.8616
1472
34.8798
1450
34.8981
1440
34.9163
1445
34.9345
1440
34.9528
1463
34.971
1531
34.9892
1531
35.0075
1476
35.0257
1422
35.0439
1411
35.0622
1431
35.0804
1440
35.0986
1476
35.1169
1421
35.1351
1474
35.1533
1464
35.1715
1481
35.1898
1493
35.208
1472
35.2262
1452
35.2445
1443
35.2627
1410
35.2809
1381
35.2992
1387
35.3174
1456
35.3356
1424
35.3539
1453
35.3721
1474
35.3903
1440
35.4085
1428
35.4268
1425
35.445
1421
35.4632
1373
35.4815
1467
35.4997
1480
35.5179
1453
35.5362
1450
35.5544
1425
35.5726
1427
35.5909
1435
35.6091
1460
35.6273
1385
35.6455
1470
35.6638
1418
35.682
1398
35.7002
1438
35.7185
1452
35.7367
1488
35.7549
1454
35.7732
1437
35.7914
1392
35.8096
1401
35.8279
1438
35.8461
1426
35.8643
1459
35.8826
1466
35.9008
1465
35.919
1469
35.9372
1434
35.9449
1484
35.9516
1471
35.9583
1494
35.965
1521
35.9717
1471
35.9784
1463
35.9851
1449
35.9918
1441
35.9985
1440
36.0052
1416
36.0119
1423
36.0186
1471
36.0253
1552
36.032
1420
36.0387
1470
36.0454
1406
36.0521
1472
36.0588
1453
36.0655
1431
36.0722
1420
36.0789
1402
36.0856
1475
36.0923
1499
36.099
1503
36.1057
1426
36.1124
1408
36.1191
1398
36.1258
1368
36.1325
1338
36.1392
1371
36.1459
1381
36.1526
1364
36.1593
1284
36.166
1266
36.1727
1307
36.1794
1354
36.1861
1289
36.1928
1293
36.1995
1329
36.2062
1350
36.2129
1387
36.2196
1411
36.2263
1476
36.233
1345
36.2397
1394
36.2464
1360
36.2531
1411
36.2598
1402
36.2665
1398
36.2732
1340
36.2799
1302
36.2866
1323
36.2933
1266
36.3
1232
36.3067
1161
36.3134
1169
36.3201
1122
36.3268
1085
36.3335
1095
36.3402
1052
36.3469
1028
36.3536
1024
36.3603
1035
36.367
1154
36.3737
1328
36.3804
1844
36.3871
2532
36.3938
3012
36.4005
2757
36.4072
2026
36.4139
1267
36.4206
941
36.4273
820
36.434
844
36.4407
841
36.4474
797
36.4541
781
36.4608
845
36.4675
790
36.4742
755
36.4809
781
36.4876
803
36.4943
818
36.501
801
36.5077
798
36.5144
868
36.5211
802
36.5278
807
36.5345
795
36.5412
792
36.5479
811
36.5546
814
36.5613
817
36.568
781
36.5747
824
36.5814
843
36.5881
783
36.5948
794
36.6015
826
36.6082
798
36.6149
803
36.6216
819
36.6283
828
36.635
833
36.6417
802
36.6484
802
36.6551
867
36.6618
796
36.6685
816
36.6752
806
36.6819
834
36.6886
837
36.6953
827
36.702
861
36.7087
834
36.7154
883
36.7221
788
36.7288
791
36.7355
805
36.7422
824
36.7489
864
36.7556
807
36.7623
799
36.769
843
36.7757
885
36.7824
794
36.7891
859
36.7958
827
36.8025
850
36.8092
861
36.8159
808
36.8226
871
36.8293
846
36.836
816
36.8427
818
36.8494
875
36.8561
842
36.8628
817
36.8695
832
36.8762
841
36.8829
870
36.8896
825
36.8963
859
36.903
854
36.9097
810
36.9164
813
36.9231
847
36.9298
835
36.9117
817
36.8827
869
36.8537
830
36.8248
866
36.7958
893
36.7668
850
36.7378
861
36.7088
858
36.6798
894
36.6508
864
36.6218
884
36.5929
822
36.5639
875
36.5349
846
36.5059
869
36.4769
899
36.4479
870
36.4189
893
36.3899
902
36.3609
876
36.332
870
36.303
909
36.274
902
36.245
877
36.216
913
36.187
879
36.158
916
36.129
917
36.1001
870
36.0711
844
36.0421
959
36.0131
903
35.9841
912
35.9551
890
35.9261
894
35.8971
928
35.8681
908
35.8392
861
35.8102
819
35.7812
837
35.7522
858
35.7232
869
35.6942
890
35.6652
860
35.6362
862
35.6073
843
35.5783
886
35.5493
885
35.5203
945
35.4913
1015
35.4623
1086
35.4333
1117
35.4043
1072
35.3754
925
35.3464
904
35.3174
846
35.2884
806
35.2594
840
35.2304
906
35.2014
856
35.1724
864
35.1434
878
35.1145
906
35.0855
858
35.0565
879
35.0275
841
34.9985
895
34.9695
896
34.9405
911
34.9115
881
34.8826
864
34.8536
901
34.8246
884
34.7956
895
34.7666
870
34.7376
900
34.7086
865
34.6796
849
34.6506
910
34.6217
947
34.5927
904
34.5637
894
34.5347
886
34.5057
880
34.4767
888
34.4477
946
34.4187
923
34.3898
919
34.3608
924
34.3318
887
34.3028
905
34.2738
896
34.2448
936
34.2158
930
34.1868
952
34.1578
940
34.1289
990
34.0999
989
34.0709
981
34.0419
969
34.0129
963
33.9839
962
33.9549
932
33.9259
998
33.897
930
33.868
906
33.839
924
33.81
907
33.781
900
33.752
910
33.723
851
33.694
904
33.6651
909
33.6361
998
33.6071
990
33.5781
1010
33.5491
1002
33.5201
964
33.4911
949
33.4621
903
33.4331
880
33.4042
891
33.3752
889
33.3462
883
33.3172
900
33.2882
926
33.2592
889
33.2302
892
33.2012
876
33.1723
865
33.1433
906
33.1143
874
33.0853
900
33.0563
892
33.0273
922
32.9983
895
32.9693
899
32.9403
931
32.9114
904
32.8824
910
32.8534
950
32.8244
980
32.7954
973
32.7664
987
32.7374
936
32.7084
950
32.6795
952
32.6505
904
32.6215
890
32.5925
892
32.5635
825
32.5345
768
32.5055
801
32.4765
745
32.4475
707
32.4186
735
32.3896
683
32.3606
650
32.3316
660
32.3026
669
32.2736
768
32.2446
895
32.2156
1192
32.1867
1580
32.1577
2121
32.1287
2838
32.0997
2899
32.0707
1898
32.0417
1059
32.0127
680
31.9837
551
31.9547
477
31.9258
482
31.8968
478
31.8678
500
31.8388
479
31.8098
454
31.7808
496
31.7518
510
31.7228
504
31.6939
513
31.6649
514
31.6359
469
31.6069
516
31.5779
524
31.5489
487
31.5199
501
31.4909
497
31.462
497
31.433
491
31.404
507
31.375
497
31.346
469
31.317
507
31.288
525
31.259
537
31.23
518
31.2011
521
31.1721
487
31.1431
496
31.1141
493
31.1243
511
31.1476
468
31.1709
487
31.1942
468
31.2174
512
31.2407
504
31.264
507
31.2873
462
31.3106
467
31.3339
516
31.3571
486
31.3804
483
31.4037
503
31.427
461
31.4503
510
31.4736
476
31.4968
502
31.5201
525
31.5434
508
31.5667
536
31.59
541
31.6133
503
31.6365
551
31.6598
507
31.6831
502
31.7064
492
31.7297
494
31.753
465
31.7762
513
31.7995
515
31.8228
500
31.8461
489
31.8694
502
31.8927
502
31.9159
477
31.9392
474
31.9625
521
31.9858
491
32.0091
489
32.0324
506
32.0556
506
32.0789
522
32.1022
501
32.1255
517
32.1488
487
32.1721
509
32.1953
509
32.2186
517
32.2419
534
32.2652
544
32.2885
566
32.3118
525
32.335
542
32.3583
528
32.3816
476
32.4049
499
32.4282
516
32.4515
499
32.4747
514
32.498
525
32.5213
496
32.5446
505
32.5679
488
32.5912
484
32.6144
532
32.6377
541
32.661
492
32.6843
477
32.7076
508
32.7309
496
32.7541
491
32.7774
478
32.8007
482
32.824
514
32.8473
534
32.8706
522
32.8938
460
32.9171
523
32.9404
473
32.9637
501
32.987
547
33.0103
530
33.0336
499
33.0568
551
33.0801
521
33.1034
543
33.1267
506
33.15
536
33.1732
530
33.1965
483
33.2198
504
33.2431
497
33.2664
520
33.2729
496
33.2261
505
33.1793
506
33.1325
522
33.0857
538
33.0389
496
32.9921
482
32.9454
505
32.8986
506
32.8518
525
32.805
516
32.7582
519
32.7114
544
32.6646
543
32.6179
510
32.5711
524
32.5243
497
32.4775
496
32.4307
496
32.3839
495
32.3371
505
32.2904
497
32.2436
456
32.1968
482
32.15
492
32.1032
507
32.0564
496
32.0096
489
31.9629
491
31.9161
482
31.8693
509
31.8225
543
31.7757
467
31.7289
497
31.6821
519
31.6354
499
31.5886
531
31.5418
508
31.495
479
31.4482
521
31.4014
535
31.3546
508
31.3079
520
31.2611
501
31.2143
514
31.1675
487
31.1207
482
31.0739
458
31.0272
485
30.9804
488
30.9336
433
30.8868
440
30.84
484
30.7932
485
30.7464
478
30.6997
469
30.6529
438
30.6061
464
30.5593
482
30.5125
468
30.4657
444
30.4189
464
30.3722
494
30.3254
468
30.2786
455
30.2318
430
30.185
482
30.1382
554
30.0914
535
30.0447
586
29.9979
582
29.9511
572
29.9043
568
29.8575
530
29.8107
420
29.7639
364
29.7172
355
29.6704
315
29.6236
332
29.5768
328
29.53
310
29.4832
290
29.4364
264
29.3897
288
29.3429
287
29.2961
273
29.2493
282
29.2025
271
29.1557
258
29.1089
263
29.0622
266
29.0154
249
28.9686
236
28.9218
216
28.875
237
28.8282
235
28.7815
222
28.7347
233
28.6879
249
28.6411
282
28.5943
312
28.5475
337
28.5007
297
28.454
265
28.4072
212
28.3604
183
28.3136
134
28.2668
131
28.22
109
28.1732
132
28.1265
105
28.0797
107
28.0329
126
27.9861
135
27.9393
144
27.8925
124
27.8457
97
27.799
100
27.7522
96
27.7054
94
27.6586
95
27.6118
76
27.565
67
27.5182
77
27.4715
83
27.4247
85
27.3779
81
27.3311
95
27.2843
88
27.2375
90
27.1907
104
27.144
140
27.0972
111
27.0504
98
27.0476
115
27.0476
112
27.0476
94
27.0476
88
27.0476
79
27.0476
81
27.0476
82
27.0476
68
27.0476
66
27.0476
70
27.0476
74
27.0476
60
27.0476
72
27.0476
66
27.0476
80
27.0476
93
27.0476
84
27.0476
103
27.0476
81
27.0476
90
27.0476
69
27.0476
59
27.0476
48
27.0476
Wide/5
Not Specified
2005
9
14
13
26
55
0
4
   Lens Mode:Hybrid   Resolution:Pass energy 160   Iris(Aperture):slot(Slot)
   Anode:Mono(Al (Mono))(150 W)   Step(meV): 1000.0   Dwell(ms): 300        Sweeps: 5        Acquisition Time(s): 902     
   Acquired On :05/09/14 13:26:55   C/N :On
   
XPS
16384
16384
0
Mono(Al (Mono))
1486.69
150
1E+37
1E+37
6000
6000
1E+37
1E+37
FAT
160
1E+37
-4.455
0
1E+37
1E+37
1E+37
1E+37
Wide
None
-1
Kinetic Energy
eV
886.69
1
2
Intensity
d
Transmission
d
pulse counting
0.3
5
0
1E+37
1E+37
1E+37
0
1202
123
9624
27.0476
36.9298
4814
35.9372
4836
35.9449
4797
35.9516
4745
35.9583
4812
35.965
4811
35.9717
4831
35.9784
4768
35.9851
4761
35.9918
4632
35.9985
4774
36.0052
4812
36.0119
4797
36.0186
5013
36.0253
4997
36.032
4962
36.0387
4862
36.0454
4810
36.0521
4760
36.0588
4723
36.0655
4826
36.0722
4757
36.0789
4888
36.0856
5030
36.0923
5075
36.099
4991
36.1057
4917
36.1124
4634
36.1191
4536
36.1258
4571
36.1325
4586
36.1392
4557
36.1459
4503
36.1526
4405
36.1593
4528
36.166
4496
36.1727
4504
36.1794
4553
36.1861
4499
36.1928
4483
36.1995
4623
36.2062
4681
36.2129
4600
36.2196
4683
36.2263
4729
36.233
4651
36.2397
4785
36.2464
4718
36.2531
4576
36.2598
4601
36.2665
4485
36.2732
4467
36.2799
4485
36.2866
4451
36.2933
4245
36.3
4194
36.3067
4025
36.3134
3796
36.3201
3712
36.3268
3662
36.3335
3560
36.3402
3476
36.3469
3517
36.3536
3474
36.3603
3619
36.367
3902
36.3737
4751
36.3804
6469
36.3871
8686
36.3938
9624
36.4005
8712
36.4072
6485
36.4139
4054
36.4206
3081
36.4273
2777
36.434
2770
36.4407
2764
36.4474
2747
36.4541
2764
36.4608
2759
36.4675
2688
36.4742
2729
36.4809
2654
36.4876
2673
36.4943
2600
36.501
2706
36.5077
2719
36.5144
2732
36.5211
2673
36.5278
2773
36.5345
2669
36.5412
2771
36.5479
2720
36.5546
2689
36.5613
2807
36.568
2734
36.5747
2746
36.5814
2687
36.5881
2730
36.5948
2743
36.6015
2688
36.6082
2759
36.6149
2794
36.6216
2882
36.6283
2849
36.635
2759
36.6417
2808
36.6484
2781
36.6551
2759
36.6618
2736
36.6685
2804
36.6752
2792
36.6819
2806
36.6886
2803
36.6953
2825
36.702
2817
36.7087
2879
36.7154
2814
36.7221
2760
36.7288
2836
36.7355
2856
36.7422
2871
36.7489
2878
36.7556
2818
36.7623
2749
36.769
2907
36.7757
2916
36.7824
2871
36.7891
2852
36.7958
2906
36.8025
2919
36.8092
2846
36.8159
2832
36.8226
2822
36.8293
2847
36.836
2833
36.8427
2872
36.8494
2873
36.8561
2967
36.8628
2893
36.8695
2903
36.8762
2845
36.8829
2790
36.8896
2791
36.8963
2899
36.903
2896
36.9097
2895
36.9164
2916
36.9231
2960
36.9298
2848
36.9117
2889
36.8827
2945
36.8537
3079
36.8248
2912
36.7958
2926
36.7668
2906
36.7378
2880
36.7088
2967
36.6798
3045
36.6508
3016
36.6218
3004
36.5929
2984
36.5639
3052
36.5349
3046
36.5059
3016
36.4769
2893
36.4479
2957
36.4189
3019
36.3899
2964
36.3609
3000
36.332
2977
36.303
3045
36.274
3038
36.245
3083
36.216
3027
36.187
3057
36.158
3021
36.129
3078
36.1001
2964
36.0711
2983
36.0421
2987
