VAMAS Surface Chemical Analysis Standard Data Transfer Format 1988 May 4
Not Specified
Kratos Axis
Not Specified
/C=/data/Axis/Victoria/mj9_59c.dset
0
MAP
REGULAR
6
1
32768
32768
1
Etch Time
s
0
0
0
0
9
Wide/2
Not Specified
2005
9
14
11
3
26
0
4
   Lens Mode:Hybrid   Resolution:Pass energy 160   Iris(Aperture):slot(Slot)
   Anode:Mono(Al (Mono))(150 W)   Step(meV): 1000.0   Dwell(ms): 164        Sweeps: 3        Acquisition Time(s): 540     
   Acquired On :05/09/14 11:03:26   C/N :On
   
XPS
16384
16384
0
Mono(Al (Mono))
1486.69
150
1E+37
1E+37
6000
6000
1E+37
1E+37
FAT
160
1E+37
-4.455
0
1E+37
1E+37
1E+37
1E+37
Wide
None
-1
Kinetic Energy
eV
386.69
1
2
Intensity
d
Transmission
d
pulse counting
0.163636
3
0
1E+37
1E+37
1E+37
0
2202
79
4724
27.0476
36.9298
2751
27.6983
2775
27.7037
2749
27.709
2685
27.7144
2702
27.7197
2711
27.7251
2696
27.7304
2723
27.7357
2730
27.7411
2803
27.7464
2787
27.7518
2787
27.7571
2791
27.7624
2717
27.7678
2782
27.7731
2770
27.7785
2799
27.7838
2817
27.7892
2770
27.7945
2783
27.7998
2839
27.8052
2766
27.8105
2754
27.8159
2848
27.8212
2799
27.8266
2750
27.8319
2796
27.8372
2760
27.8426
2845
27.8479
2868
27.8533
2876
27.8586
2847
27.864
2821
27.8693
2839
27.8746
2828
27.88
2840
27.8853
2854
27.8907
2833
27.896
2817
27.9014
2810
27.9067
2953
27.912
2858
27.9174
2844
27.9227
2902
27.9281
2932
27.9334
2861
27.9387
2914
27.9441
2876
27.9494
2931
27.9548
2873
27.9601
2969
27.9655
2864
27.9708
2907
27.9761
2864
27.9815
3024
27.9868
2880
27.9922
2898
27.9975
2906
28.0029
2896
28.0082
2925
28.0135
2882
28.0189
2901
28.0242
2905
28.0296
2858
28.0349
2936
28.0403
2977
28.0456
2931
28.0509
2953
28.0563
2980
28.0616
2969
28.067
2946
28.0809
2998
28.0992
3034
28.1175
2967
28.1358
2972
28.1541
2906
28.1724
2960
28.1908
2992
28.2091
3004
28.2274
2960
28.2457
2951
28.264
3015
28.2823
3065
28.3006
2995
28.3189
3012
28.3373
2988
28.3556
2939
28.3739
2921
28.3922
2894
28.4105
3003
28.4288
2975
28.4471
2874
28.4654
2896
28.4838
2975
28.5021
3030
28.5204
3039
28.5387
3041
28.557
2997
28.5753
2988
28.5936
2990
28.6119
3008
28.6303
3058
28.6486
3025
28.6669
3115
28.6852
3026
28.7035
2981
28.7218
2921
28.7401
2982
28.7584
2986
28.7768
2936
28.7951
2900
28.8134
2849
28.8317
2917
28.85
2928
28.8683
2896
28.8866
2933
28.905
2850
28.9233
2852
28.9416
2912
28.9599
2975
28.9782
3011
28.9965
2919
29.0148
3012
29.0331
3018
29.0515
3024
29.0698
3000
29.0881
3080
29.1064
2993
29.1247
3034
29.143
2915
29.1613
2768
29.1796
2835
29.198
2775
29.2163
2696
29.2346
2697
29.2529
2587
29.2712
2558
29.2895
2513
29.3078
2519
29.3261
2533
29.3445
2544
29.3628
2570
29.3811
2546
29.3994
2534
29.4177
2484
29.436
2527
29.4543
2565
29.4726
2553
29.491
2632
29.5093
2590
29.5276
2619
29.5459
2677
29.5642
2643
29.5825
2660
29.6008
2649
29.6192
2563
29.6375
2556
29.6558
2636
29.6741
2592
29.6924
2606
29.7107
2657
29.729
2594
29.7473
2597
29.7657
2529
29.784
2597
29.8023
2635
29.8206
2685
29.8389
2674
29.8572
2619
29.8755
2608
29.8938
2732
29.9122
2619
29.9305
2599
29.9488
2630
29.9671
2594
29.9854
2586
30.0037
2564
30.022
2602
30.0403
2731
30.0587
2623
30.077
2648
30.0953
2666
30.1136
2670
30.1319
2695
30.1502
2659
30.1685
2575
30.1869
2616
30.2052
2645
30.2235
2649
30.2418
2638
30.2601
2697
30.2784
2654
30.2967
2631
30.315
2591
30.3334
2598
30.3517
2647
30.37
2690
30.3883
2700
30.4066
2624
30.4249
2638
30.4432
2680
30.4615
2671
30.4799
2601
30.4982
2627
30.5165
2655
30.5348
2637
30.5531
2667
30.5714
2572
30.5897
2601
30.608
2629
30.6264
2614
30.6447
2691
30.663
2648
30.6813
2638
30.6996
2655
30.7179
2654
30.7362
2611
30.7545
2583
30.7729
2633
30.7912
2653
30.8095
2697
30.8278
2732
30.8461
2685
30.8644
2651
30.8827
2711
30.9011
2652
30.9194
2668
30.9377
2670
30.956
2648
30.9743
2740
30.9926
2704
31.0109
2673
31.0292
2658
31.0476
2637
31.0659
2632
31.0842
2663
31.1025
2755
31.1208
2779
31.1391
2747
31.1574
2692
31.1757
2755
31.1941
2733
31.2124
2646
31.2307
2689
31.249
2634
31.2673
2578
31.2856
2682
31.3039
2690
31.3222
2679
31.3406
2713
31.3589
2683
31.3772
2658
31.3955
2704
31.4138
2717
31.4321
2720
31.4504
2766
31.4688
2798
31.4871
2761
31.5054
2656
31.5237
2668
31.542
2682
31.5603
2695
31.5786
2721
31.5969
2767
31.6153
2727
31.6336
2648
31.6519
2661
31.6702
2731
31.6885
2697
31.7068
2770
31.7251
2730
31.7434
2753
31.7618
2733
31.7801
2658
31.7984
2764
31.8167
2801
31.835
2735
31.8533
2740
31.8716
2769
31.8899
2705
31.9082
2653
31.9264
2654
31.9447
2783
31.9629
2709
31.9811
2689
31.9994
2660
32.0176
2697
32.0358
2781
32.054
2773
32.0723
2865
32.0905
2763
32.1087
2740
32.127
2780
32.1452
2684
32.1634
2743
32.1817
2798
32.1999
2796
32.2181
2829
32.2364
2792
32.2546
2767
32.2728
2753
32.291
2757
32.3093
2826
32.3275
2733
32.3457
2782
32.364
2765
32.3822
2843
32.4004
2820
32.4187
2770
32.4369
2799
32.4551
2801
32.4734
2810
32.4916
2797
32.5098
2829
32.528
2753
32.5463
2846
32.5645
2829
32.5827
2865
32.601
2804
32.6192
2859
32.6374
2837
32.6557
2817
32.6739
2825
32.6921
2835
32.7104
2712
32.7286
2830
32.7468
2814
32.7651
2708
32.7833
2777
32.8015
2814
32.8197
2818
32.838
2783
32.8562
2685
32.8744
2810
32.8927
2888
32.9109
2861
32.9291
2862
32.9474
2911
32.9656
2892
32.9838
2811
33.0021
2828
33.0203
2925
33.0385
2813
33.0568
2790
33.075
2917
33.0932
2928
33.1114
2850
33.1297
2865
33.1479
2853
33.1661
2731
33.1844
2844
33.2026
2779
33.2208
2797
33.2391
2786
33.2573
2850
33.2755
2932
33.2938
2924
33.312
2867
33.3302
2898
33.3484
2927
33.3667
2832
33.3849
2894
33.4031
2862
33.4214
2843
33.4396
2846
33.4578
2799
33.4761
2835
33.4943
2959
33.5125
2811
33.5308
2825
33.549
2805
33.5672
2809
33.5854
2888
33.6037
2864
33.6219
2888
33.6401
2916
33.6584
2883
33.6766
2895
33.6948
2927
33.7131
2864
33.7313
2808
33.7495
2838
33.7678
2848
33.786
2813
33.8042
2801
33.8225
2913
33.8407
2871
33.8589
2888
33.8771
2897
33.8954
2887
33.9136
2963
33.9318
2893
33.9501
2872
33.9683
2824
33.9865
2859
34.0048
2834
34.023
2844
34.0412
2801
34.0595
2799
34.0777
2782
34.0959
2781
34.1141
2771
34.1324
2819
34.1506
2916
34.1688
2910
34.1871
2920
34.2053
2887
34.2235
2875
34.2418
2914
34.26
2913
34.2782
2900
34.2965
2882
34.3147
2888
34.3329
2885
34.3512
2891
34.3694
2852
34.3876
2882
34.4058
2869
34.4241
2885
34.4423
2866
34.4605
2940
34.4788
2854
34.497
2905
34.5152
3030
34.5335
2970
34.5517
2951
34.5699
3005
34.5882
2920
34.6064
2844
34.6246
2981
34.6428
2890
34.6611
2934
34.6793
2963
34.6975
2934
34.7158
2976
34.734
2993
34.7522
2916
34.7705
2971
34.7887
2967
34.8069
2878
34.8252
2983
34.8434
2990
34.8616
2954
34.8798
2833
34.8981
3053
34.9163
2978
34.9345
2978
34.9528
3003
34.971
2981
34.9892
2983
35.0075
2882
35.0257
2936
35.0439
2979
35.0622
2970
35.0804
3051
35.0986
3209
35.1169
3120
35.1351
3028
35.1533
3053
35.1715
2967
35.1898
3043
35.208
3038
35.2262
3090
35.2445
3072
35.2627
2981
35.2809
3079
35.2992
2988
35.3174
2955
35.3356
2947
35.3539
3002
35.3721
3012
35.3903
3099
35.4085
3057
35.4268
3063
35.445
3065
35.4632
3072
35.4815
3034
35.4997
3081
35.5179
3077
35.5362
3051
35.5544
3093
35.5726
3071
35.5909
3040
35.6091
3071
35.6273
3163
35.6455
3081
35.6638
3099
35.682
3037
35.7002
3018
35.7185
3071
35.7367
3072
35.7549
3104
35.7732
3014
35.7914
3023
35.8096
3083
35.8279
3107
35.8461
3090
35.8643
3031
35.8826
3097
35.9008
3109
35.919
3028
35.9372
3165
35.9449
3126
35.9516
3228
35.9583
3165
35.965
3146
35.9717
3237
35.9784
3192
35.9851
3163
35.9918
3181
35.9985
3145
36.0052
3189
36.0119
3223
36.0186
3211
36.0253
3191
36.032
3158
36.0387
3189
36.0454
3169
36.0521
3124
36.0588
3158
36.0655
3090
36.0722
3153
36.0789
3141
36.0856
3195
36.0923
3221
36.099
3192
36.1057
3080
36.1124
3127
36.1191
3118
36.1258
3186
36.1325
3126
36.1392
3081
36.1459
3161
36.1526
3165
36.1593
3105
36.166
3123
36.1727
3193
36.1794
3134
36.1861
3229
36.1928
3210
36.1995
3108
36.2062
3229
36.2129
3238
36.2196
3214
36.2263
3257
36.233
3235
36.2397
3236
36.2464
3132
36.2531
3260
36.2598
3298
36.2665
3229
36.2732
3182
36.2799
3114
36.2866
3238
36.2933
3179
36.3
3037
36.3067
3021
36.3134
2811
36.3201
2729
36.3268
2668
36.3335
2556
36.3402
2523
36.3469
2564
36.3536
2742
36.3603
3032
36.367
3628
36.3737
4209
36.3804
4281
36.3871
4205
36.3938
3975
36.4005
3677
36.4072
3156
36.4139
2716
36.4206
2387
36.4273
2349
36.434
2304
36.4407
2263
36.4474
2255
36.4541
2314
36.4608
2245
36.4675
2199
36.4742
2243
36.4809
2380
36.4876
2285
36.4943
2266
36.501
2286
36.5077
2344
36.5144
2263
36.5211
2380
36.5278
2410
36.5345
2347
36.5412
2275
36.5479
2308
36.5546
2308
36.5613
2353
36.568
2377
36.5747
2356
36.5814
2365
36.5881
2376
36.5948
2358
36.6015
2431
36.6082
2324
36.6149
2354
36.6216
2335
36.6283
2488
36.635
2441
36.6417
2435
36.6484
2394
36.6551
2349
36.6618
2387
36.6685
2439
36.6752
2381
36.6819
2413
36.6886
2428
36.6953
2447
36.702
2489
36.7087
2434
36.7154
2467
36.7221
2428
36.7288
2433
36.7355
2416
36.7422
2436
36.7489
2461
36.7556
2404
36.7623
2447
36.769
2563
36.7757
2478
36.7824
2424
36.7891
2467
36.7958
2464
36.8025
2452
36.8092
2427
36.8159
2514
36.8226
2487
36.8293
2488
36.836
2473
36.8427
2484
36.8494
2485
36.8561
2476
36.8628
2407
36.8695
2550
36.8762
2486
36.8829
2465
36.8896
2499
36.8963
2539
36.903
2528
36.9097
2598
36.9164
2526
36.9231
2515
36.9298
2509
36.9117
2556
36.8827
2552
36.8537
2572
36.8248
2580
36.7958
2651
36.7668
2634
36.7378
2609
36.7088
2588
36.6798
2649
36.6508
2605
36.6218
2625
36.5929
2660
36.5639
2597
36.5349
2592
36.5059
2485
36.4769
2600
36.4479
2685
36.4189
2718
36.3899
2609
36.3609
2698
36.332
2681
36.303
2659
36.274
2657
36.245
2674
36.216
2681
36.187
2683
36.158
2717
36.129
2731
36.1001
2601
36.0711
2668
36.0421
2675
36.0131
2637
35.9841
2698
35.9551
2722
35.9261
2673
35.8971
2677
35.8681
2636
35.8392
2588
35.8102
2631
35.7812
2651
35.7522
2636
35.7232
2640
35.6942
2549
35.6652
2564
35.6362
2545
35.6073
2685
35.5783
2736
35.5493
2947
35.5203
3195
35.4913
3197
35.4623
3172
35.4333
3002
35.4043
2967
35.3754
2753
35.3464
2593
35.3174
2534
35.2884
2575
35.2594
2583
35.2304
2595
35.2014
2522
35.1724
2582
35.1434
2565
35.1145
2611
35.0855
2630
35.0565
2617
35.0275
2644
34.9985
2664
34.9695
2647
34.9405
2602
34.9115
2645
34.8826
2700
34.8536
2720
34.8246
2684
34.7956
2612
34.7666
2645
34.7376
2676
34.7086
2598
34.6796
2621
34.6506
2729
34.6217
2609
34.5927
2606
34.5637
2660
34.5347
2596
34.5057
2653
34.4767
2612
34.4477
2607
34.4187
2585
34.3898
2567
34.3608
2608
34.3318
2576
34.3028
2613
34.2738
2690
34.2448
2815
34.2158
2946
34.1868
2937
34.1578
2978
34.1289
3043
34.0999
2890
34.0709
2888
34.0419
2849
34.0129
2643
33.9839
2596
33.9549
2465
33.9259
2346
33.897
2317
33.868
2347
33.839
2267
33.81
2217
33.781
2310
33.752
2366
33.723
2506
33.694
2624
33.6651
2817
33.6361
2906
33.6071
2922
33.5781
2878
33.5491
2747
33.5201
2570
33.4911
2391
33.4621
2292
33.4331
2163
33.4042
2052
33.3752
2052
33.3462
1896
33.3172
1932
33.2882
2003
33.2592
1913
33.2302
1915
33.2012
1897
33.1723
1918
33.1433
1983
33.1143
1943
33.0853
1930
33.0563
1986
33.0273
1969
32.9983
1943
32.9693
1914
32.9403
1928
32.9114
2019
32.8824
2138
32.8534
2092
32.8244
2031
32.7954
2079
32.7664
2010
32.7374
1964
32.7084
1936
32.6795
1871
32.6505
1825
32.6215
1797
32.5925
1646
32.5635
1702
32.5345
1582
32.5055
1541
32.4765
1352
32.4475
1390
32.4186
1345
32.3896
1293
32.3606
1255
32.3316
1395
32.3026
1567
32.2736
1911
32.2446
2714
32.2156
3994
32.1867
4724
32.1577
4603
32.1287
4193
32.0997
3783
32.0707
3168
32.0417
2334
32.0127
1429
31.9837
1035
31.9547
947
31.9258
917
31.8968
911
31.8678
895
31.8388
888
31.8098
914
31.7808
995
31.7518
918
31.7228
881
31.6939
885
31.6649
900
31.6359
926
31.6069
945
31.5779
920
31.5489
929
31.5199
931
31.4909
893
31.462
890
31.433
911
31.404
979
31.375
880
31.346
963
31.317
930
31.288
949
31.259
947
31.23
948
31.2011
951
31.1721
973
31.1431
998
31.1141
929
31.1243
884
31.1476
872
31.1709
874
31.1942
916
31.2174
925
31.2407
961
31.264
951
31.2873
900
31.3106
940
31.3339
942
31.3571
958
31.3804
959
31.4037
965
31.427
962
31.4503
1008
31.4736
1011
31.4968
1037
31.5201
1007
31.5434
1034
31.5667
1048
31.59
1008
31.6133
1029
31.6365
982
31.6598
1010
31.6831
1009
31.7064
954
31.7297
960
31.753
974
31.7762
991
31.7995
998
31.8228
1004
31.8461
1003
31.8694
1003
31.8927
1024
31.9159
1004
31.9392
981
31.9625
940
31.9858
1015
32.0091
958
32.0324
1002
32.0556
968
32.0789
959
32.1022
973
32.1255
1076
32.1488
1050
32.1721
1060
32.1953
1047
32.2186
1047
32.2419
1095
32.2652
1067
32.2885
1063
32.3118
1024
32.335
1048
32.3583
1080
32.3816
1081
32.4049
1071
32.4282
981
32.4515
1033
32.4747
1030
32.498
1069
32.5213
990
32.5446
1028
32.5679
1044
32.5912
1040
32.6144
1066
32.6377
1072
32.661
1091
32.6843
1091
32.7076
1062
32.7309
1022
32.7541
967
32.7774
1115
32.8007
1032
32.824
1051
32.8473
1062
32.8706
1060
32.8938
1032
32.9171
1044
32.9404
1121
32.9637
1141
32.987
1187
33.0103
1181
33.0336
1129
33.0568
1089
33.0801
1079
33.1034
1141
33.1267
1154
33.15
1129
33.1732
1086
33.1965
1131
33.2198
1056
33.2431
1069
33.2664
1159
33.2729
1164
33.2261
1169
33.1793
1212
33.1325
1154
33.0857
1131
33.0389
1115
32.9921
1121
32.9454
1160
32.8986
1103
32.8518
1158
32.805
1136
32.7582
1108
32.7114
1139
32.6646
1135
32.6179
1128
32.5711
1128
32.5243
1182
32.4775
1110
32.4307
1132
32.3839
1171
32.3371
1123
32.2904
1160
32.2436
1171
32.1968
1172
32.15
1190
32.1032
1131
32.0564
1152
32.0096
1177
31.9629
1169
31.9161
1160
31.8693
1144
31.8225
1128
31.7757
1182
31.7289
1145
31.6821
1174
31.6354
1235
31.5886
1199
31.5418
1252
31.495
1229
31.4482
1267
31.4014
1266
31.3546
1219
31.3079
1281
31.2611
1234
31.2143
1279
31.1675
1288
31.1207
1243
31.0739
1246
31.0272
1253
30.9804
1202
30.9336
1211
30.8868
1202
30.84
1174
30.7932
1132
30.7464
1138
30.6997
1035
30.6529
1032
30.6061
1011
30.5593
1000
30.5125
907
30.4657
900
30.4189
897
30.3722
867
30.3254
894
30.2786
934
30.2318
1259
30.185
1746
30.1382
1838
30.0914
1910
30.0447
2358
29.9979
2656
29.9511
2304
29.9043
1887
29.8575
1591
29.8107
1320
29.7639
921
29.7172
608
29.6704
389
29.6236
325
29.5768
302
29.53
312
29.4832
319
29.4364
297
29.3897
287
29.3429
268
29.2961
289
29.2493
296
29.2025
292
29.1557
265
29.1089
264
29.0622
261
29.0154
265
28.9686
252
28.9218
217
28.875
252
28.8282
293
28.7815
289
28.7347
319
28.6879
290
28.6411
330
28.5943
313
28.5475
301
28.5007
289
28.454
277
28.4072
275
28.3604
240
28.3136
234
28.2668
190
28.22
195
28.1732
184
28.1265
186
28.0797
204
28.0329
179
27.9861
182
27.9393
209
27.8925
190
27.8457
179
27.799
191
27.7522
191
27.7054
184
27.6586
190
27.6118
166
27.565
200
27.5182
180
27.4715
197
27.4247
187
27.3779
220
27.3311
221
27.2843
205
27.2375
231
27.1907
210
27.144
204
27.0972
232
27.0504
200
27.0476
236
27.0476
181
27.0476
179
27.0476
174
27.0476
167
27.0476
166
27.0476
178
27.0476
158
27.0476
148
27.0476
154
27.0476
144
27.0476
137
27.0476
148
27.0476
185
27.0476
228
27.0476
224
27.0476
265
27.0476
313
27.0476
263
27.0476
203
27.0476
200
27.0476
123
27.0476
79
27.0476
Wide/5
Not Specified
2005
9
14
14
57
1
0
4
   Lens Mode:Hybrid   Resolution:Pass energy 160   Iris(Aperture):slot(Slot)
   Anode:Mono(Al (Mono))(150 W)   Step(meV): 1000.0   Dwell(ms): 300        Sweeps: 5        Acquisition Time(s): 902     
   Acquired On :05/09/14 14:57:01   C/N :On
   
XPS
16384
16384
0
Mono(Al (Mono))
1486.69
150
1E+37
1E+37
6000
6000
1E+37
1E+37
FAT
160
1E+37
-4.455
0
1E+37
1E+37
1E+37
1E+37
Wide
None
-1
Kinetic Energy
eV
886.69
1
2
Intensity
d
Transmission
d
pulse counting
0.3
5
0
1E+37
1E+37
1E+37
0
1202
254
14884
27.0476
36.9298
10294
35.9372
10418
35.9449
10501
35.9516
10417
35.9583
10369
35.965
10403
35.9717
10414
35.9784
10587
35.9851
10433
35.9918
10613
35.9985
10636
36.0052
10495
36.0119
10503
36.0186
10533
36.0253
10600
36.032
10626
36.0387
10652
36.0454
10622
36.0521
10748
36.0588
10590
36.0655
10589
36.0722
10686
36.0789
10821
36.0856
10800
36.0923
10882
36.099
10812
36.1057
10739
36.1124
10609
36.1191
10677
36.1258
10631
36.1325
10586
36.1392
10476
36.1459
10444
36.1526
10562
36.1593
10533
36.166
10273
36.1727
10281
36.1794
10475
36.1861
10493
36.1928
10570
36.1995
10612
36.2062
10614
36.2129
10790
36.2196
10859
36.2263
10867
36.233
10721
36.2397
10827
36.2464
10856
36.2531
10642
36.2598
10729
36.2665
10805
36.2732
10758
36.2799
10776
36.2866
10611
36.2933
10263
36.3
9971
36.3067
9627
36.3134
9247
36.3201
9038
36.3268
8848
36.3335
8626
36.3402
8717
36.3469
8779
36.3536
9360
36.3603
10474
36.367
12721
36.3737
14431
36.3804
14705
36.3871
14236
36.3938
13152
36.4005
12123
36.4072
10498
36.4139
9058
36.4206
8082
36.4273
7823
36.434
7698
36.4407
7781
36.4474
7742
36.4541
7772
36.4608
7772
36.4675
7786
36.4742
7940
36.4809
7949
36.4876
7696
36.4943
7651
36.501
7778
36.5077
7882
36.5144
7664
36.5211
7706
36.5278
7824
36.5345
7761
36.5412
7696
36.5479
7806
36.5546
7805
36.5613
7935
36.568
7852
36.5747
7939
36.5814
7944
36.5881
7922
36.5948
7911
36.6015
7821
36.6082
7832
36.6149
8054
36.6216
8055
36.6283
7976
36.635
7885
36.6417
8152
36.6484
8147
36.6551
8116
36.6618
8065
36.6685
7963
36.6752
8009
36.6819
8076
36.6886
8077
36.6953
8057
36.702
8016
36.7087
8086
36.7154
8094
36.7221
8163
36.7288
8163
36.7355
8036
36.7422
8135
36.7489
8176
36.7556
8222
36.7623
8158
36.769
8124
36.7757
8285
36.7824
8264
36.7891
8340
36.7958
8234
36.8025
8279
36.8092
8426
36.8159
8398
36.8226
8329
36.8293
8475
36.836
8384
36.8427
8431
36.8494
8458
36.8561
8388
36.8628
8450
36.8695
8515
36.8762
8361
36.8829
8314
36.8896
8504
36.8963
8378
36.903
8686
36.9097
8567
36.9164
8451
36.9231
8454
36.9298
